x	y	Number of Calibrants	Number of Peaks	TIC per spectrum	Most abundant m/z
1	1	1	1364	121.850390398685	328.971197672656
1	2	2	1961	200.963327709254	328.971197672656
1	3	1	1714	127.846644478468	153.173335465757
2	1	1	1986	182.318354201019	153.112078382987
2	2	0	1801	135.305841731585	328.971197672656
2	3	0	1968	168.270181475225	255.28235280251
3	1	1	1974	161.809190448268	152.989637701451
3	2	0	1505	108.395974184216	255.28235280251
3	3	1	2180	243.539506603108	153.112078382987
